Data from 145mW_IR_0.3bar_Ar_wedges_minus_23.47mm_Subt2__0__12-40-47-730.txt Node

Date: Thu Jan 06 12:40:47 CET 2022
User: fsatto
Spectrometer: OFX01956
Trigger mode: 0
Integration Time (sec): 2,000000E-3
Scans to average: 20
Nonlinearity correction enabled: false
Boxcar width: 0
Storing dark spectrum: false
XAxis mode: Wavelengths
Number of Pixels in Spectrum: 2136
>>>>>Begin Spectral Data<<<<<
158,236	-8,65
158,705	-9,15
159,174	-9,65
159,643	-5,9
160,112	-10,5
160,582	-3,05
161,051	-5,85
161,52	-7,3
161,988	2,4
162,457	-7,75
162,926	-10,05
163,395	-6,85
163,864	0,6
164,332	-8,75
164,801	-8,35
165,269	-3,95
165,738	-6
166,206	-7,85
166,675	-0,2
167,143	-3,6
167,612	-9,9
168,08	-3,85
168,548	-9,5
169,016	-10,4
169,484	-10,15
169,952	-1,65
170,42	-6,6
170,888	-11,45
171,356	-5,8
171,824	-13,45
172,292	-7,7
172,759	-2,55
173,227	-10,6
173,695	-10,45
174,162	-8,75
174,63	-0,6
175,097	-4,25
175,565	-12,2
176,032	-9,8
176,499	-6,9
176,967	-3,45
177,434	-4,7
177,901	-2,5
178,368	-3,7
178,835	-4,2
179,302	-7,4
179,769	-0,75
180,236	-7,3
180,703	-9,55
181,17	-8,85
181,637	-9,2
182,103	-2,85
182,57	-1,4
183,036	-3,35
183,503	-4,4
183,97	-4,85
184,436	-4,45
184,902	-9,4
185,369	-10,75
185,835	-7,55
186,301	-5,65
186,767	-6,6
187,234	-8,95
187,7	-7,45
188,166	-3,4
188,632	-5,95
189,098	-1,85
189,563	-10,6
190,029	-2,95
190,495	-4,3
190,961	-7
191,426	-5,55
191,892	-2,2
192,358	-5,75
192,823	-6,65
193,289	-6,65
193,754	-6
194,219	-6,35
194,685	-7,75
195,15	0,2
195,615	-6,9
196,08	-9
196,545	-0,9
197,01	-4,05
197,475	-3
197,94	-2,7
198,405	-8,35
198,87	1,15
199,335	-4,75
199,8	-5,4
200,264	35,1
200,729	32,25
201,193	37,75
201,658	46,25
202,122	40,75
202,587	45
203,051	48,55
203,516	51,3
203,98	49,1
204,444	43
204,908	43,35
205,372	53,9
205,836	56,5
206,3	50,4
206,764	45,55
207,228	60,1
207,692	61,5
208,156	59,05
208,62	62,2
209,083	63,4
209,547	67,7
210,011	81,75
210,474	87,7
210,938	90,5
211,401	97,9
211,864	108,4
212,328	97,3
212,791	111,85
213,254	115,65
213,717	134,6
214,181	140,55
214,644	139,65
215,107	146,85
215,57	167,75
216,033	156,3
216,495	175,6
216,958	181,65
217,421	188,5
217,884	190
218,346	207,1
218,809	229,7
219,272	227,55
219,734	230,95
220,196	224,4
220,659	222,95
221,121	236,1
221,584	231,55
222,046	240
222,508	251,45
222,97	253,25
223,432	274,55
223,894	273,4
224,356	289,55
224,818	287,8
225,28	304,05
225,742	368,5
226,204	415
226,665	429
227,127	448,55
227,589	499,05
228,05	570,85
228,512	750,35
228,973	929,2
229,435	1024,35
229,896	1059,2
230,357	1132,35
230,818	1320
231,28	1583,2
231,741	1788,5
232,202	1970,5
232,663	2125,5
233,124	2216,45
233,585	2600
234,046	3223,35
234,507	3612,2
234,967	3682,9
235,428	3837,7
235,889	4065,4
236,349	4509,8
236,81	5291,5
237,271	6035,15
237,731	6265,15
238,191	6404,35
238,652	6761,9
239,112	7465,95
239,572	8451,05
240,033	9142,35
240,493	9244,3
240,953	9134,35
241,413	9313,8
241,873	9983,55
242,333	10655,8
242,793	11338,7
243,253	11951,15
243,712	11869,85
244,172	11347,05
244,632	11745,25
245,092	13345,4
245,551	15121,3
246,011	16383,95
246,47	15673,95
246,93	15094,85
247,389	15555,9
247,848	16700,75
248,308	18767,85
248,767	20084
249,226	20240,8
249,685	20168,35
250,144	20133,8
250,603	21332,7
251,062	23460,15
251,521	26335,2
251,98	26518,85
252,439	24924,55
252,897	24486,2
253,356	25787,1
253,815	26879
254,273	28460,25
254,732	29669,25
255,19	28176,9
255,649	25961
256,107	25574,15
256,566	27383
257,024	28166,55
257,482	26903
257,94	24956,05
258,398	23632,4
258,856	23388,35
259,315	23288,4
259,772	22921,15
260,23	21964,35
260,688	21370,45
261,146	20790,4
261,604	19033,9
262,062	18428,85
262,519	18695,1
262,977	18723,7
263,434	17714,75
263,892	17439,75
264,349	16552,15
264,807	14905,55
265,264	14794,45
265,721	15542
266,179	15504,7
266,636	14236,85
267,093	13149,9
267,55	12665,65
268,007	12148,65
268,464	12097,9
268,921	12358,45
269,378	11930,8
269,835	10369,25
270,291	9354,2
270,748	8450,75
271,205	8140,2
271,661	8254,2
272,118	8326
272,574	7812,55
273,031	6879,3
273,487	6270,55
273,944	5941,4
274,4	5683,5
274,856	5597,7
275,312	5404,2
275,768	4901,2
276,225	4257,2
276,681	4058,7
277,137	3921,05
277,593	3642,7
278,048	3324,8
278,504	3132,1
278,96	2915,1
279,416	2507,45
279,871	2234,35
280,327	2126,65
280,783	2044,35
281,238	2004,25
281,694	1991,4
282,149	1833,95
282,604	1650,35
283,06	1473,95
283,515	1367,45
283,97	1304,2
284,425	1256,55
284,88	1207,85
285,335	1117,6
285,79	1028,75
286,245	950,35
286,7	886,4
287,155	822,65
287,61	789,55
288,064	806,15
288,519	805,55
288,974	754,05
289,428	681,55
289,883	578,6
290,337	522,75
290,792	488,85
291,246	493,35
291,7	480,7
292,155	440,8
292,609	416,75
293,063	367,95
293,517	320,4
293,971	287,7
294,425	291,55
294,879	282,45
295,333	254,2
295,787	239,35
296,241	211,1
296,694	180,25
297,148	173,05
297,602	158,4
298,055	150,4
298,509	148,7
298,962	134,05
299,416	128,8
299,869	113,15
300,322	114,25
300,775	98,05
301,229	94,75
301,682	98,05
302,135	90,8
302,588	94,55
303,041	101,65
303,494	94,9
303,947	89,7
304,4	85,45
304,852	91,65
305,305	91,85
305,758	87,85
306,21	87,4
306,663	82,5
307,115	95,05
307,568	83,9
308,02	84,65
308,473	76,6
308,925	81,5
309,377	84,65
309,829	91,45
310,282	78,8
310,734	77,55
311,186	72,9
311,638	82,2
312,09	74,7
312,542	73,65
312,993	65,15
313,445	62,15
313,897	62,35
314,349	60,45
314,8	61,45
315,252	55,15
315,703	53,5
316,155	52
316,606	45,05
317,058	48,9
317,509	52,95
317,96	39,25
318,411	39,65
318,863	40,6
319,314	43,45
319,765	38,3
320,216	36,9
320,667	39
321,117	34,3
321,568	33,45
322,019	32,25
322,47	20,55
322,921	33,7
323,371	25,25
323,822	25,95
324,272	26,5
324,723	19,65
325,173	16,7
325,623	13,55
326,074	18,25
326,524	10,05
326,974	19,4
327,424	7,75
327,874	19
328,325	22,15
328,775	15,85
329,224	6,3
329,674	15,5
330,124	11
330,574	4,55
331,024	7,15
331,473	7,2
331,923	9,3
332,373	6,25
332,822	4,25
333,272	5,8
333,721	8,55
334,17	9,55
334,62	4,6
335,069	7,45
335,518	8,1
335,967	5,6
336,416	5,15
336,865	7,2
337,314	-4,8
337,763	3,5
338,212	8,8
338,661	-4,35
339,11	-3,9
339,558	6,4
340,007	0,7
340,456	7,5
340,904	5,4
341,353	-4,75
341,801	0,6
342,25	5,4
342,698	4,4
343,146	4
343,595	1,05
344,043	3,8
344,491	8,1
344,939	-4
345,387	7,45
345,835	3,15
346,283	6,45
346,731	0,95
347,179	-0,35
347,626	4,85
348,074	1,7
348,522	0,6
348,969	0,4
349,417	2,3
349,865	-0,4
350,312	-4,1
350,759	6,4
351,207	-0,35
351,654	-2,4
352,101	0,3
352,548	2,1
352,996	2,2
353,443	5,85
353,89	10,5
354,337	-2,4
354,784	0
355,231	-5,65
355,677	-2,75
356,124	5,5
356,571	7,85
357,018	-1,7
357,464	0,7
357,911	5
358,357	-0,4
358,804	-1,4
359,25	1,25
359,696	1,2
360,143	-1,5
360,589	0,5
361,035	-5,4
361,481	-1,5
361,927	-1,15
362,373	4,5
362,819	1,7
363,265	-2,35
363,711	-7,45
364,157	1,2
364,603	-1,7
365,048	-10,45
365,494	-1,55
365,94	-1,75
366,385	0,4
366,831	2,15
367,276	-4
367,722	-6,4
368,167	0,15
368,612	1,55
369,057	-5,3
369,503	-9,6
369,948	0,4
370,393	0,95
370,838	0,55
371,283	-2,9
371,728	1,15
372,173	6,15
372,617	0,15
373,062	0,2
373,507	-4,9
373,951	-2,05
374,396	-1,5
374,841	0,7
375,285	-2,5
375,729	-3
376,174	-5,2
376,618	-4
377,062	-4
377,507	-3,25
377,951	-7
378,395	-4,15
378,839	3,15
379,283	1,1
379,727	-2,45
380,171	-2,4
380,615	-3,15
381,059	-1,25
381,502	1,3
381,946	-1,7
382,39	-0,2
382,833	0,2
383,277	-0,7
383,72	3,7
384,164	-4,5
384,607	-8,2
385,05	-2,8
385,494	-0,95
385,937	-1,8
386,38	0,3
386,823	5,25
387,266	-4,15
387,709	-0,2
388,152	-1,65
388,595	4,85
389,038	5,9
389,481	1,65
389,923	4,75
390,366	0,75
390,809	3
391,251	-5,9
391,694	8,1
392,136	1,8
392,579	2,95
393,021	4,2
393,463	-5,25
393,906	1,5
394,348	2,65
394,79	0,7
395,232	5,45
395,674	6,5
396,116	0,1
396,558	4,4
397	0,75
397,442	-5
397,884	4,35
398,325	0,9
398,767	1,85
399,209	4,35
399,65	0,3
400,092	1
400,533	0,55
400,974	-2,05
401,416	1,2
401,857	0,15
402,298	2,4
402,74	-0,6
403,181	1,95
403,622	6,2
404,063	1,05
404,504	-5,3
404,945	1,9
405,386	-1,65
405,826	0,3
406,267	5,75
406,708	2,5
407,149	-1,5
407,589	-0,6
408,03	-2,15
408,47	-2,65
408,911	-0,25
409,351	-1
409,791	0,05
410,232	-0,3
410,672	-2
411,112	-0,15
411,552	2,45
411,992	-3,5
412,432	2,4
412,872	4,45
413,312	2,1
413,752	4
414,192	4,15
414,632	-5,25
415,071	-4,9
415,511	-0,25
415,951	-5,55
416,39	-2,1
416,83	-1,75
417,269	1,25
417,708	-0,3
418,148	5,05
418,587	2,2
419,026	1,35
419,465	9,2
419,904	-0,55
420,344	2,2
420,783	-5,15
421,221	4,15
421,66	2,45
422,099	2,15
422,538	1,75
422,977	-6,2
423,415	3,6
423,854	3,4
424,293	0,8
424,731	-1,55
425,17	0,25
425,608	2,25
426,046	-1,4
426,485	-9,1
426,923	2,7
427,361	-6,4
427,799	4
428,237	-7,75
428,675	3,45
429,113	6,3
429,551	-3,5
429,989	-1,5
430,427	2,9
430,865	-2,2
431,303	0,85
431,74	-3,25
432,178	4,45
432,615	1,65
433,053	3,75
433,49	-1,2
433,928	1,85
434,365	1,65
434,802	-8,8
435,24	2,4
435,677	-0,25
436,114	6,15
436,551	-0,25
436,988	-2,5
437,425	-0,4
437,862	4,6
438,299	-0,05
438,736	8,4
439,172	2,25
439,609	2
440,046	2,05
440,482	-0,95
440,919	-3,1
441,355	1,4
441,792	-0,35
442,228	-1,05
442,665	2,2
443,101	1,1
443,537	-2,1
443,973	0,65
444,409	-2,9
444,845	-0,75
445,281	0,9
445,717	6,45
446,153	0,55
446,589	-3,8
447,025	-2,65
447,461	1,6
447,896	-0,9
448,332	4,3
448,768	5,1
449,203	0,2
449,639	-3,35
450,074	1,75
450,509	6,05
450,945	-1,85
451,38	-3
451,815	4,5
452,25	1,15
452,685	2,5
453,12	-8,1
453,555	3,6
453,99	-1,75
454,425	-3,4
454,86	5,5
455,295	4,6
455,73	-0,4
456,164	1,9
456,599	-2,9
457,033	2,75
457,468	1,9
457,902	3,35
458,337	-3,1
458,771	2,25
459,205	-5,9
459,64	4,1
460,074	3,2
460,508	2,7
460,942	7,75
461,376	-0,1
461,81	4,1
462,244	2,75
462,678	6,2
463,112	2,5
463,545	-1,95
463,979	-1,45
464,413	0,5
464,846	4,55
465,28	-1,5
465,713	0,1
466,147	4
466,58	0,35
467,014	-0,9
467,447	0,15
467,88	-0,85
468,313	2,85
468,746	0,1
469,179	1,75
469,612	0,5
470,045	6,8
470,478	1,8
470,911	-4,9
471,344	-4,45
471,777	-2,45
472,209	9,65
472,642	8,95
473,074	4,85
473,507	1,5
473,939	4,95
474,372	3,9
474,804	-3,65
475,236	-1,4
475,669	4,9
476,101	4,8
476,533	2
476,965	-2,15
477,397	-2,45
477,829	2,6
478,261	2,8
478,693	5,5
479,125	7,6
479,557	6,85
479,988	1,15
480,42	12,4
480,852	4,7
481,283	13,4
481,715	2,65
482,146	3,75
482,577	3,95
483,009	4
483,44	4,9
483,871	4,35
484,302	6,9
484,734	1,95
485,165	13,1
485,596	5,8
486,027	4,95
486,457	4,65
486,888	7,2
487,319	0,25
487,75	2,4
488,181	1,7
488,611	3,6
489,042	-6,4
489,472	7,4
489,903	0,65
490,333	8
490,764	-1,25
491,194	-0,15
491,624	8,75
492,054	-2,35
492,484	3,25
492,915	-1,15
493,345	1,3
493,775	5,4
494,204	-0,75
494,634	2
495,064	0,05
495,494	-4,05
495,924	2,65
496,353	4,55
496,783	7,95
497,212	3,1
497,642	4,15
498,071	2,3
498,501	2,7
498,93	-0,8
499,359	-1,5
499,789	-6,7
500,218	-3,95
500,647	1,8
501,076	0,6
501,505	-1,65
501,934	2,7
502,363	-2,65
502,792	-2,4
503,221	-7,85
503,649	0,5
504,078	-4,5
504,507	1,25
504,935	-0,7
505,364	-2,9
505,792	-1,35
506,221	1,4
506,649	-6,45
507,077	-6,65
507,506	-5,15
507,934	-1,9
508,362	4,2
508,79	2,45
509,218	2,25
509,646	1,05
510,074	-1,8
510,502	2,6
510,93	-3
511,357	-8,4
511,785	-4,4
512,213	3,25
512,64	-2
513,068	-0,75
513,496	-1,95
513,923	-4,85
514,35	-4,25
514,778	-6,2
515,205	-5,2
515,632	3
516,059	4,05
516,486	-3,3
516,914	-8,65
517,341	-6,85
517,768	-1,05
518,194	-5,7
518,621	-2,85
519,048	-1,9
519,475	-2,9
519,902	-2,65
520,328	-2,9
520,755	-4,15
521,181	-3,05
521,608	-0,6
522,034	-10,3
522,461	-7,6
522,887	-4,6
523,313	2,2
523,739	5,1
524,165	0
524,592	-2
525,018	5,85
525,444	6,45
525,869	-2,65
526,295	3,75
526,721	-0,25
527,147	2,3
527,573	0,05
527,998	1,1
528,424	-2,2
528,849	1,3
529,275	3,1
529,7	-2,35
530,126	0,9
530,551	-2,15
530,976	1,8
531,402	-4,85
531,827	-1,6
532,252	-5,65
532,677	-6,3
533,102	-0,65
533,527	-5,45
533,952	-2,5
534,377	0,05
534,801	-0,9
535,226	-5,3
535,651	-0,95
536,076	3,6
536,5	2,75
536,925	-0,6
537,349	-5
537,773	-2,65
538,198	0,75
538,622	-1,9
539,046	-3,8
539,471	-0,75
539,895	-3,6
540,319	-3,75
540,743	-4,3
541,167	-1,2
541,591	0,9
542,015	-4,2
542,438	-4,95
542,862	4,95
543,286	0,35
543,71	-3,8
544,133	-3,45
544,557	1,15
544,98	-4,35
545,404	2,8
545,827	-5,1
546,25	-1,25
546,674	-6,2
547,097	-6,3
547,52	0,6
547,943	-2,05
548,366	-4,55
548,789	-4,4
549,212	-2,55
549,635	-3,05
550,058	-2,65
550,481	-4,6
550,903	3,55
551,326	-5,25
551,749	2,85
552,171	2,15
552,594	-5,8
553,016	-2,4
553,438	-9,45
553,861	-1,45
554,283	-1,8
554,705	2,5
555,128	-1,9
555,55	-2,3
555,972	-2,3
556,394	-5,4
556,816	-1,3
557,238	-5,15
557,659	-0,7
558,081	-1,85
558,503	2,3
558,925	-1,05
559,346	1,9
559,768	-0,05
560,189	0,9
560,611	-6
561,032	-0,2
561,454	3,2
561,875	1,25
562,296	-8,35
562,718	-4,8
563,139	0,8
563,56	1,5
563,981	-1,1
564,402	-6,75
564,823	-4,95
565,244	0,15
565,664	1,1
566,085	0,35
566,506	-0,5
566,927	0,6
567,347	-3,2
567,768	1,85
568,188	-4,95
568,609	3,65
569,029	1,4
569,449	-3,55
569,87	-0,1
570,29	-3
570,71	-1,75
571,13	-5,35
571,55	-5,35
571,97	-6,7
572,39	-6,65
572,81	-2
573,23	-3
573,65	2,55
574,069	-0,55
574,489	-0,45
574,909	-6,65
575,328	-16,4
575,748	-9,7
576,167	-4,75
576,587	-13,2
577,006	1,15
577,425	-1,3
577,844	2,85
578,264	-0,55
578,683	-5,05
579,102	0
579,521	-3,6
579,94	4,6
580,359	-3,15
580,778	-1,05
581,196	-6,15
581,615	-11,95
582,034	-5,8
582,452	-4,35
582,871	-5,9
583,29	-1
583,708	-5,8
584,126	-5,45
584,545	-7,55
584,963	-0,95
585,381	-8,05
585,8	-1,75
586,218	-6,5
586,636	-2,8
587,054	-5,6
587,472	-1,2
587,89	-5,85
588,308	-6,05
588,725	1,7
589,143	-10,1
589,561	-2,3
589,979	-1,05
590,396	1,45
590,814	4,8
591,231	-1,65
591,649	-0,25
592,066	-4,65
592,483	-4
592,901	-7,05
593,318	-3,95
593,735	-6,9
594,152	-5,05
594,569	0,6
594,986	-2,05
595,403	-5,85
595,82	-5,3
596,237	-3,9
596,654	-6,75
597,07	12,15
597,487	-4,05
597,904	-3,75
598,32	0,5
598,737	6,8
599,153	-10,3
599,57	-6,3
599,986	-3,45
600,402	0,1
600,818	-4,25
601,235	-4,1
601,651	-5,05
602,067	-2,4
602,483	3,7
602,899	-6,8
603,315	0,6
603,73	3,9
604,146	-1,2
604,562	-0,5
604,978	-2,65
605,393	0,25
605,809	1,7
606,224	-2,2
606,64	1,95
607,055	-0,6
607,471	3,05
607,886	-3,3
608,301	3,25
608,716	-4,3
609,131	-2,2
609,547	2,65
609,962	-3,4
610,377	2,3
610,791	-0,8
611,206	1,75
611,621	8,35
612,036	2,05
612,451	0,7
612,865	6,25
613,28	1,8
613,694	19,45
614,109	5,05
614,523	5,25
614,938	10
615,352	9,55
615,766	16
616,18	9,4
616,595	20,3
617,009	7,8
617,423	12,75
617,837	12,35
618,251	21,2
618,664	17,75
619,078	17,1
619,492	19,1
619,906	16,55
620,319	22,35
620,733	18,2
621,146	17,95
621,56	27,5
621,973	22,45
622,387	15,7
622,8	20,3
623,213	14,1
623,627	21,05
624,04	19
624,453	23,3
624,866	25,65
625,279	24,4
625,692	32,7
626,105	24,9
626,518	21,5
626,93	24,2
627,343	32,8
627,756	29,35
628,168	34,3
628,581	22,9
628,993	26,4
629,406	38,2
629,818	41,4
630,231	38,85
630,643	44
631,055	48,05
631,467	50,4
631,879	57,6
632,291	60,95
632,703	62,4
633,115	72,75
633,527	80,15
633,939	90,6
634,351	104,35
634,763	106,05
635,174	131,2
635,586	141,2
635,997	145,1
636,409	163,6
636,82	168,55
637,232	178,95
637,643	185,75
638,054	192,3
638,466	197,85
638,877	215,7
639,288	221,9
639,699	219,3
640,11	222,1
640,521	219,45
640,932	228,3
641,343	236,3
641,753	235,7
642,164	241,35
642,575	238,5
642,986	229,3
643,396	229,8
643,807	239,1
644,217	244,15
644,627	236,15
645,038	225
645,448	230,4
645,858	224,55
646,269	224,05
646,679	220,8
647,089	222,9
647,499	207,65
647,909	201
648,319	189,3
648,728	180,5
649,138	170,4
649,548	171,2
649,958	164,9
650,367	151,45
650,777	153,9
651,186	146,2
651,596	130,8
652,005	139,5
652,415	132,35
652,824	118,05
653,233	111,85
653,642	118,75
654,052	115,25
654,461	122,5
654,87	110,25
655,279	112,15
655,688	118,5
656,096	112,25
656,505	118,2
656,914	119,25
657,323	113,7
657,731	114,45
658,14	113
658,548	124,1
658,957	122,5
659,365	117,4
659,774	117
660,182	122,3
660,59	117,8
660,998	108,15
661,407	115,35
661,815	115,9
662,223	110,3
662,631	117,95
663,039	115,1
663,446	119,75
663,854	105,25
664,262	101,05
664,67	102,25
665,077	106,25
665,485	106,95
665,892	95,5
666,3	92,7
666,707	86,05
667,115	87,3
667,522	76,65
667,929	75,75
668,337	72,75
668,744	65,35
669,151	64,05
669,558	65,75
669,965	69,4
670,372	50,8
670,779	56,35
671,185	52,1
671,592	42,3
671,999	38,5
672,405	37,2
672,812	38,2
673,219	25,9
673,625	23,85
674,032	22,8
674,438	25,25
674,844	27,7
675,25	20
675,657	7,9
676,063	18,5
676,469	14,75
676,875	15,95
677,281	9,6
677,687	5,3
678,093	9,9
678,499	2,9
678,904	4,15
679,31	2,3
679,716	8,55
680,121	4,7
680,527	6,2
680,932	9,25
681,338	-3,65
681,743	6
682,148	3,15
682,554	2,85
682,959	-0,15
683,364	-3,4
683,769	4,5
684,174	2,6
684,579	-0,9
684,984	-3,15
685,389	-5,5
685,794	0,35
686,199	0,45
686,603	-4,45
687,008	-7,75
687,413	-2,4
687,817	-2,95
688,222	-2,1
688,626	-6,4
689,03	-1
689,435	-1,25
689,839	-5,75
690,243	-3,3
690,647	-13,55
691,051	-4,75
691,456	-6,9
691,859	-2
692,263	-2,5
692,667	1,15
693,071	2,35
693,475	-4,45
693,879	-2,1
694,282	-4
694,686	-2,15
695,089	-2,9
695,493	3,5
695,896	-0,05
696,3	-0,55
696,703	-4,75
697,106	-0,95
697,509	-4,35
697,913	-2,65
698,316	-10,05
698,719	-4,45
699,122	-4,9
699,525	0,7
699,928	-5,95
700,33	-4
700,733	-4,5
701,136	-3,8
701,539	-5,55
701,941	1,35
702,344	-4,15
702,746	-8,6
703,149	-1,7
703,551	-3,8
703,953	0,2
704,356	-3,75
704,758	-5,75
705,16	-2,45
705,562	4,2
705,964	7,7
706,366	-3,25
706,768	-1,8
707,17	-4,85
707,572	-5,05
707,973	0,7
708,375	-8,85
708,777	-3,8
709,178	-6,4
709,58	-4,2
709,981	3,85
710,383	0,7
710,784	-6,1
711,186	-5,9
711,587	-2,15
711,988	-2,85
712,389	-0,5
712,79	-4,9
713,191	-6,9
713,592	-3,5
713,993	0,55
714,394	-3,4
714,795	0,25
715,196	-2,6
715,596	1,95
715,997	3,05
716,398	-9,9
716,798	-5,95
717,199	2,1
717,599	-0,75
718	0,2
718,4	-0,4
718,8	-2,6
719,2	-1
719,6	-8,25
720,001	-10,55
720,401	-3,8
720,801	-2,1
721,201	-5,2
721,6	-5,75
722	-2
722,4	-7,5
722,8	-0,1
723,199	5
723,599	3,05
723,998	0,05
724,398	-7,15
724,797	-2,85
725,197	8,45
725,596	8,3
725,995	1,1
726,394	6,45
726,794	4,15
727,193	4,5
727,592	5,95
727,991	10,65
728,39	14
728,789	15,9
729,187	18,2
729,586	23,75
729,985	15,45
730,383	21,5
730,782	26,9
731,181	30,75
731,579	34,8
731,977	42,5
732,376	44,4
732,774	46,2
733,172	50,25
733,571	62,5
733,969	56,7
734,367	70,25
734,765	74,5
735,163	81,05
735,561	87,7
735,959	96,05
736,356	105,8
736,754	110,15
737,152	124,05
737,55	133,6
737,947	141,9
738,345	145,8
738,742	150,95
739,14	151,45
739,537	158,2
739,934	149,6
740,331	157,8
740,729	154,35
741,126	163,3
741,523	176,9
741,92	171,75
742,317	164
742,714	173,9
743,111	182,55
743,507	188,7
743,904	192,85
744,301	184,5
744,697	194,35
745,094	190,7
745,491	193,95
745,887	187,85
746,283	191,8
746,68	186,35
747,076	177,4
747,472	180
747,869	178,5
748,265	168
748,661	162,6
749,057	164,2
749,453	163,05
749,849	168,15
750,244	170,6
750,64	173,95
751,036	183,2
751,432	175,95
751,827	179,35
752,223	166,7
752,618	170,2
753,014	184,65
753,409	172,05
753,805	180,1
754,2	186,25
754,595	179,2
754,99	184,65
755,385	187,85
755,78	203,45
756,175	195,9
756,57	195,9
756,965	191,75
757,36	201,1
757,755	198,75
758,15	209,15
758,544	214,1
758,939	221,75
759,334	240,35
759,728	240,55
760,122	244,6
760,517	256,05
760,911	259,4
761,306	255,4
761,7	233,65
762,094	231,05
762,488	208,15
762,882	200,05
763,276	181,8
763,67	174,2
764,064	175,4
764,458	178,75
764,852	198,5
765,245	202
765,639	229,45
766,033	247,25
766,426	258,8
766,82	265,4
767,213	259,65
767,606	249,15
768	245,75
768,393	244,75
768,786	224
769,179	220,95
769,572	230,25
769,966	221,4
770,358	206,85
770,751	212,65
771,144	200,5
771,537	197,75
771,93	206,85
772,323	199,55
772,715	189,25
773,108	171,9
773,5	157,15
773,893	144,9
774,285	122,55
774,678	100,4
775,07	81,5
775,462	65,6
775,854	57,35
776,247	52,1
776,639	42,4
777,031	49,65
777,423	55,95
777,815	59,7
778,207	69,85
778,598	61,1
778,99	67,05
779,382	71,15
779,773	86,95
780,165	106,55
780,557	116,65
780,948	126,8
781,339	138
781,731	148,8
782,122	155,45
782,513	158,35
782,905	160
783,296	153,85
783,687	159,3
784,078	146,25
784,469	153,4
784,86	139,45
785,251	124,3
785,641	131,2
786,032	114
786,423	117,25
786,813	115,25
787,204	115,3
787,594	117,9
787,985	117,45
788,375	99,15
788,766	94,45
789,156	82,25
789,546	77,75
789,936	72,85
790,326	69,65
790,717	72,8
791,107	67,15
791,497	62,1
791,886	54,3
792,276	49,9
792,666	44,95
793,056	54
793,445	48,3
793,835	51,7
794,225	46,5
794,614	40,1
795,004	38,25
795,393	41,2
795,782	36,55
796,172	32,15
796,561	49,15
796,95	41,55
797,339	42,8
797,728	30,85
798,117	45,65
798,506	35,5
798,895	42,35
799,284	45
799,673	47,95
800,061	40,6
800,45	32
800,839	36,3
801,227	34,85
801,616	31,55
802,004	21,55
802,392	28,15
802,781	29,2
803,169	27,6
803,557	27,25
803,945	23,9
804,333	19,1
804,721	23,35
805,109	13,3
805,497	13,7
805,885	13,95
806,273	12,9
806,661	9,5
807,048	6,05
807,436	9,95
807,824	8,85
808,211	11,15
808,599	3,3
808,986	2,1
809,373	5,9
809,761	4,95
810,148	4,25
810,535	-0,55
810,922	2,85
811,309	4,5
811,696	3,05
812,083	2,2
812,47	5
812,857	10,6
813,244	4,25
813,631	2,3
814,017	6,05
814,404	2,4
814,791	4,85
815,177	7,45
815,564	1,15
815,95	2,45
816,336	-1,5
816,723	9,85
817,109	4,05
817,495	3,55
817,881	-1,45
818,267	-0,25
818,653	1,9
819,039	7,5
819,425	6,2
819,811	0,8
820,197	8,3
820,582	1,95
820,968	-4
821,354	3,95
821,739	-0,8
822,125	-5,65
822,51	0,2
822,895	-1,95
823,281	-2,75
823,666	-4
824,051	2,55
824,436	-4,35
824,822	-3,6
825,207	-5,45
825,592	-5,2
825,976	7,25
826,361	-1,35
826,746	-4,3
827,131	-3,45
827,516	-5,4
827,9	6,3
828,285	-12,4
828,669	-5,05
829,054	-3,85
829,438	-4,15
829,823	1,05
830,207	-4,45
830,591	-0,75
830,975	-1,75
831,36	-1,7
831,744	-6
832,128	-7,3
832,512	-2,55
832,895	3,5
833,279	-8,6
833,663	-2,95
834,047	-2,65
834,431	-5,05
834,814	-5,35
835,198	-0,2
835,581	-8,5
835,965	-3,05
836,348	-4,25
836,731	-0,05
837,115	-5,25
837,498	-1,1
837,881	-4,4
838,264	-7,4
838,647	-0,1
839,03	0,5
839,413	-4,4
839,796	2,05
840,179	-3,4
840,562	-4
840,944	-2,65
841,327	-6,8
841,71	-2,65
842,092	-8,45
842,475	-2,1
842,857	-4
843,24	-6,85
843,622	-7,4
844,004	-2,75
844,386	-9,75
844,769	-2
845,151	-4,4
845,533	-8,95
845,915	-3,65
846,297	1,55
846,678	-6,5
847,06	-7,55
847,442	-5,1
847,824	-1,25
848,205	-1,6
848,587	-0,6
848,968	-4,1
849,35	-11,05
849,731	-6,55
850,113	-1,15
850,494	1,8
850,875	-10,15
851,256	-2,8
851,638	-1,3
852,019	-5,5
852,4	0,2
852,781	2,7
853,161	-3,95
853,542	0,35
853,923	-11,3
854,304	-0,1
854,685	-5,9
855,065	-6,65
855,446	-5,75
855,826	5,1
856,207	-5
856,587	-6,2
856,967	1,3
857,348	-1,45
857,728	-8,45
858,108	-5,8
858,488	1,3
858,868	-5,7
859,248	-11,1
859,628	-15,6
860,008	-2,05
860,388	-9,9
860,768	-5,25
861,147	-6,25
861,527	-9,55
861,907	-1,45
862,286	-1,85
862,666	-1,35
863,045	-7,6
863,424	-4,9
863,804	-3,3
864,183	-9,55
864,562	-5,3
864,941	-7,2
865,32	-3,95
865,699	-0,95
866,078	2,35
866,457	-1,55
866,836	-7,2
867,215	3,05
867,594	-6,5
867,972	-11,15
868,351	-4,5
868,729	-6,75
869,108	-3,1
869,486	-4,25
869,865	0
870,243	-8,05
870,621	-6,4
871	2,2
871,378	-4,55
871,756	-4,55
872,134	-7,05
872,512	-1,7
872,89	-4,35
873,268	-5
873,646	-3,85
874,023	-0,4
874,401	-2,3
874,779	-3,35
875,156	-5,95
875,534	-4,55
875,911	-5
876,289	-4,05
876,666	-2,9
877,043	0,65
877,421	-4,95
877,798	-0,2
878,175	-1
878,552	-5,15
878,929	-1,85
879,306	2,4
879,683	4,4
880,06	-2,15
880,437	-2,6
880,813	-10,6
881,19	-4,5
881,567	0,85
881,943	3,9
882,32	-4,05
882,696	-7,7
883,073	3,35
883,449	-4,8
883,825	-4,9
884,202	-1,25
884,578	-7,55
884,954	-9,4
885,33	-2,3
885,706	-2,2
886,082	-0,6
886,458	2,4
886,834	-4,5
887,209	0,65
887,585	1,1
887,961	-6,25
888,336	2,05
888,712	4,55
889,087	3,8
889,463	1,9
889,838	6,65
890,213	1,7
890,589	3,7
890,964	8,45
891,339	3,55
891,714	10,95
892,089	0,7
892,464	1,1
892,839	5,35
893,214	-4,55
893,589	10,55
893,963	4,95
894,338	6,25
894,713	9,55
895,087	6,25
895,462	12
895,836	10,85
896,211	5,2
896,585	0,95
896,959	7,35
897,334	5,9
897,708	11,6
898,082	8,1
898,456	5,55
898,83	7,7
899,204	10,5
899,578	14,2
899,952	8,2
900,325	4
900,699	8,7
901,073	11,75
901,446	7,7
901,82	9,55
902,193	18,85
902,567	16,8
902,94	20,35
903,313	17,7
903,687	14,45
904,06	16,8
904,433	19,95
904,806	20,5
905,179	20,45
905,552	15,7
905,925	19,35
906,298	23,15
906,671	19,8
907,043	17,1
907,416	21,3
907,789	17,75
908,161	23,1
908,534	25,25
908,906	22,65
909,279	25,05
909,651	25,1
910,023	22,3
910,396	23,75
910,768	30,85
911,14	29,25
911,512	28,8
911,884	28,25
912,256	24,35
912,628	22,85
912,999	23,7
913,371	31,55
913,743	38,65
914,115	31,85
914,486	28,9
914,858	34,2
915,229	19,5
915,601	22,6
915,972	20,6
916,343	18,35
916,715	25,9
917,086	24,7
917,457	26,6
917,828	12,8
918,199	25,8
918,57	22,35
918,941	21,9
919,312	15,2
919,682	25,2
920,053	16,8
920,424	26,1
920,794	28,2
921,165	23,45
921,536	19,7
921,906	18,4
922,276	13,95
922,647	15,05
923,017	21,1
923,387	20,4
923,757	12,95
924,127	21,9
924,497	19,05
924,867	20,55
925,237	19,3
925,607	16,75
925,977	19,45
926,347	19
926,716	21,8
927,086	17,05
927,456	19,75
927,825	23,35
928,195	21,7
928,564	21,7
928,933	22,95
929,303	17,65
929,672	14,8
930,041	21,4
930,41	21,65
930,779	25,55
931,148	23,95
931,517	22,1
931,886	11,55
932,255	20,45
932,624	14,9
932,993	29,35
933,361	29,45
933,73	17,65
934,098	18,85
934,467	19,15
934,835	20,65
935,204	24,75
935,572	20,75
935,94	22,5
936,308	18,6
936,677	19,6
937,045	19,8
937,413	15,5
937,781	18,05
938,149	19,8
938,516	20,35
938,884	20,6
939,252	15,8
939,62	24,9
939,987	17,85
940,355	20,5
940,722	16,25
941,09	13,05
941,457	14,1
941,825	16,2
942,192	10,75
942,559	14,5
942,926	15,95
943,293	15,8
943,66	12,3
944,027	17,1
944,394	14,2
944,761	19,75
945,128	13,85
945,495	7,85
945,861	9,4
946,228	16,6
946,595	13,65
946,961	9,65
947,328	13,3
947,694	8,4
948,06	13,2
948,427	7,75
948,793	7,75
949,159	7
949,525	9,15
949,891	3,55
950,257	9,55
950,623	16
950,989	7,9
951,355	5,75
951,721	5,6
952,087	7,1
952,452	6,55
952,818	6,1
953,183	3,8
953,549	4,65
953,914	1,5
954,28	6,95
954,645	-0,85
955,01	2,9
955,375	2,35
955,741	4,9
956,106	6,55
956,471	8,25
956,836	3,25
957,201	4,45
957,566	7,8
957,93	0,95
958,295	3,7
958,66	-2,1
959,024	6,3
959,389	1,6
959,753	-3,25
960,118	2,4
960,482	9,85
960,847	3,5
961,211	3,8
961,575	0,35
961,939	2,9
962,303	4,3
962,667	-2,6
963,031	3,2
963,395	-0,4
963,759	-1,3
964,123	0,1
964,487	0,8
964,851	6,8
965,214	2,7
965,578	-5,4
965,941	1,1
966,305	2,3
966,668	10,7
967,032	-0,6
967,395	1,8
967,758	4
968,121	7,35
968,484	-2
968,847	2,35
969,21	5,8
969,573	1,8
969,936	-3,45
970,299	1,05
970,662	3
971,025	-4,3
971,387	-0,9
971,75	-3,6
972,112	0,85
972,475	-1,05
972,837	-1,25
973,2	7,2
973,562	-3,4
973,924	-7,95
974,286	-5,65
974,649	-9,55
975,011	3,75
975,373	-0,25
975,735	-4,5
976,097	1,05
976,458	-1,85
976,82	-4,9
977,182	-5,35
977,544	-6,4
977,905	1,4
978,267	-1,95
978,628	-5,35
978,99	-4,9
979,351	-9,8
979,712	-3,85
980,074	-10,7
980,435	-2,55
980,796	-4,6
981,157	-13,95
981,518	-1
981,879	-3,2
982,24	-4,75
982,601	-5,6
982,962	-3,75
983,323	-0,5
983,683	-6,65
984,044	-4,8
984,404	-4,2
984,765	-4,7
985,125	-0,95
985,486	-5,6
985,846	-3,15
986,206	-1,95
986,567	-0,5
986,927	-2,9
987,287	-10,9
987,647	-2,55
988,007	0,25
988,367	-0,55
988,727	-3,25
989,087	-2
989,446	-4,6
989,806	-2,05
990,166	-1,35
990,525	-2,65
990,885	-3,65
991,244	-2,7
991,604	-12,25
991,963	-4,35
992,322	-2,85
992,682	-5,65
993,041	-5,1
993,4	-9,35
993,759	-3,5
994,118	2,8
994,477	-8,75
994,836	-2,65
995,195	-0,35
995,553	-1
995,912	-4,5
996,271	-1,85
996,629	-7,85
996,988	0,65
997,346	4,15
997,705	-3,35
998,063	-4,95
998,422	-5,55
998,78	0,3
999,138	-1,85
999,496	3,15
999,854	-5,95
1000,212	-0,7
1000,57	-5,75
1000,928	-5,85
1001,286	-5,8
1001,644	-8,05
1002,001	-5,45
1002,359	-0,85
1002,717	-5,9
1003,074	-2,95
1003,432	-9,8
1003,789	-1,2
1004,147	-10,25
1004,504	-5,1
1004,861	-4,75
1005,218	-3,8
1005,576	-4,15
1005,933	-2,4
1006,29	-5,4
1006,647	-8,7
1007,004	-8,25
1007,36	-1,25
1007,717	-0,6
1008,074	-2,5
1008,431	0,9
1008,787	-2,95
1009,144	-0,8
1009,5	-5,3
1009,857	-7,3
1010,213	3,1
1010,569	-2,75
1010,926	-7,65
1011,282	-6,5
1011,638	-6,65
1011,994	-3,85
1012,35	-7,85
1012,706	-7,45
1013,062	0,25
1013,418	-5,3
1013,774	-4,6
1014,13	-4,7
1014,485	-10,75
1014,841	-3,35
1015,197	-8,35
1015,552	-3,7
1015,907	-1,4
1016,263	-2,7
1016,618	-4,4
1016,974	-6,9
1017,329	-4,6
1017,684	-3,8
1018,039	-11,95
1018,394	-6,9
1018,749	-5,85
1019,104	-7,8
1019,459	-9,75
1019,814	-12,35
1020,168	-1,9
1020,523	0,55
1020,878	1,35
1021,232	1,55
1021,587	1,6
1021,941	-0,5
1022,296	1,2
1022,65	-12,35
1023,004	-6,25
1023,359	-7,65
1023,713	-0,7
1024,067	-1,65
1024,421	-0,25
1024,775	-5,1
1025,129	-5,75
1025,483	-7,8
1025,837	3,2
1026,19	-7,55
1026,544	-2,45
1026,898	-5,25
1027,251	-3,6
1027,605	-3,7
1027,958	0,45
1028,312	-4,25
1028,665	-1,45
1029,018	-6,45
1029,372	-2,4
1029,725	-6,3
1030,078	0,15
1030,431	-0,75
1030,784	-5,95
1031,137	-3,6
1031,49	0,15
1031,843	-5,85
1032,195	-2,4
1032,548	-2,5
1032,901	0,85
1033,253	-4,15
1033,606	-9,7
1033,958	-5,35
1034,311	1,3
1034,663	2,15
1035,016	-2,95
1035,368	-1,8
1035,72	-0,1
1036,072	-6,5
1036,424	-5,25
1036,776	-1,3
1037,128	1,05
1037,48	-5,7
